N MODIS Camera Average Relative Spectral Response
RSR_1240
 1213.0000 0.0000000   8244.02
 1214.0000 0.0122200   8237.23
 1215.0000 0.0158100   8230.45
 1216.0000 0.0204300   8223.68
 1217.0000 0.0265300   8216.93
 1218.0000 0.0338700   8210.18
 1219.0000 0.0430500   8203.45
 1220.0000 0.0558700   8196.72
 1221.0000 0.0718800   8190.01
 1222.0000 0.0930400   8183.31
 1223.0000 0.1214500   8176.61
 1224.0000 0.1547100   8169.93
 1225.0000 0.1948600   8163.27
 1226.0000 0.2465800   8156.61
 1227.0000 0.3041000   8149.96
 1228.0000 0.3687200   8143.32
 1229.0000 0.4352300   8136.70
 1230.0000 0.5047500   8130.08
 1231.0000 0.5809500   8123.48
 1232.0000 0.6621200   8116.88
 1233.0000 0.7389400   8110.30
 1234.0000 0.8023000   8103.73
 1235.0000 0.8474000   8097.17
 1236.0000 0.8880500   8090.61
 1237.0000 0.9308200   8084.07
 1238.0000 0.9611400   8077.54
 1239.0000 0.9816000   8071.03
 1240.0000 0.9854000   8064.52
 1241.0000 0.9867500   8058.02
 1242.0000 0.9896500   8051.53
 1243.0000 0.9982100   8045.05
 1244.0000 0.9914100   8038.59
 1245.0000 0.9746300   8032.13
 1246.0000 0.9445400   8025.68
 1247.0000 0.9092700   8019.25
 1248.0000 0.8698700   8012.82
 1249.0000 0.8245600   8006.41
 1250.0000 0.7606100   8000.00
 1251.0000 0.6894500   7993.61
 1252.0000 0.6122700   7987.22
 1253.0000 0.5240600   7980.85
 1254.0000 0.4333700   7974.48
 1255.0000 0.3432700   7968.13
 1256.0000 0.2768700   7961.78
 1257.0000 0.2228800   7955.45
 1258.0000 0.1821300   7949.13
 1259.0000 0.1419600   7942.81
 1260.0000 0.1051100   7936.51
 1261.0000 0.0759200   7930.21
 1262.0000 0.0594000   7923.93
 1263.0000 0.0483800   7917.66
 1264.0000 0.0412700   7911.39
 1265.0000 0.0347800   7905.14
 1266.0000 0.0282700   7898.89
 1267.0000 0.0212800   7892.66
 1268.0000 0.0169200   7886.44
 1269.0000 0.0138400   7880.22
 1270.0000 0.0120600   7874.02
 1271.0000 0.0104700   7867.82
 1272.0000 0.0000000   7861.64
RSR_1640
 1595.0000 0.0000000   6269.59
 1596.0000 0.0109600   6265.66
 1597.0000 0.0134400   6261.74
 1598.0000 0.0167500   6257.82
 1599.0000 0.0201900   6253.91
 1600.0000 0.0259600   6250.00
 1601.0000 0.0320300   6246.10
 1602.0000 0.0411300   6242.20
 1603.0000 0.0506600   6238.30
 1604.0000 0.0658400   6234.41
 1605.0000 0.0817700   6230.53
 1606.0000 0.1050800   6226.65
 1607.0000 0.1296500   6222.78
 1608.0000 0.1650900   6218.91
 1609.0000 0.2018500   6215.04
 1610.0000 0.2512500   6211.18
 1611.0000 0.3021400   6207.32
 1612.0000 0.3619700   6203.47
 1613.0000 0.4232200   6199.63
 1614.0000 0.4872800   6195.79
 1615.0000 0.5517000   6191.95
 1616.0000 0.6190900   6188.12
 1617.0000 0.6869200   6184.29
 1618.0000 0.7536400   6180.47
 1619.0000 0.8201800   6176.65
 1620.0000 0.8808200   6172.84
 1621.0000 0.9407600   6169.03
 1622.0000 0.9711100   6165.23
 1623.0000 0.9972200   6161.43
 1624.0000 0.9968600   6157.64
 1625.0000 0.9933500   6153.85
 1626.0000 0.9868000   6150.06
 1627.0000 0.9797200   6146.28
 1628.0000 0.9752800   6142.51
 1629.0000 0.9711600   6138.74
 1630.0000 0.9629000   6134.97
 1631.0000 0.9540400   6131.21
 1632.0000 0.9378100   6127.45
 1633.0000 0.9206500   6123.70
 1634.0000 0.8931000   6119.95
 1635.0000 0.8642600   6116.21
 1636.0000 0.8213200   6112.47
 1637.0000 0.7764600   6108.74
 1638.0000 0.7211200   6105.01
 1639.0000 0.6641000   6101.28
 1640.0000 0.6035700   6097.56
 1641.0000 0.5426100   6093.85
 1642.0000 0.4853600   6090.13
 1643.0000 0.4286800   6086.43
 1644.0000 0.3816600   6082.73
 1645.0000 0.3358000   6079.03
 1646.0000 0.2914800   6075.33
 1647.0000 0.2473900   6071.65
 1648.0000 0.1999000   6067.96
 1649.0000 0.1519000   6064.28
 1650.0000 0.1174100   6060.61
 1651.0000 0.0849600   6056.94
 1652.0000 0.0691100   6053.27
 1653.0000 0.0554200   6049.61
 1654.0000 0.0473300   6045.95
 1655.0000 0.0400900   6042.30
 1656.0000 0.0343500   6038.65
 1657.0000 0.0288500   6035.00
 1658.0000 0.0236200   6031.36
 1659.0000 0.0184300   6027.73
 1660.0000 0.0137300   6024.10
 1661.0000 0.0000000   6020.47
RSR_2130
 2057.0000 0.0000000   4861.45
 2058.0000 0.0100000   4859.09
 2059.0000 0.0103200   4856.73
 2060.0000 0.0109000   4854.37
 2061.0000 0.0124000   4852.01
 2062.0000 0.0145500   4849.66
 2063.0000 0.0167100   4847.31
 2064.0000 0.0188700   4844.96
 2065.0000 0.0210300   4842.62
 2066.0000 0.0242900   4840.27
 2067.0000 0.0289500   4837.93
 2068.0000 0.0336100   4835.59
 2069.0000 0.0382600   4833.25
 2070.0000 0.0429200   4830.92
 2071.0000 0.0500800   4828.59
 2072.0000 0.0605900   4826.25
 2073.0000 0.0711000   4823.93
 2074.0000 0.0816100   4821.60
 2075.0000 0.0921100   4819.28
 2076.0000 0.1091300   4816.96
 2077.0000 0.1347100   4814.64
 2078.0000 0.1603000   4812.32
 2079.0000 0.1858800   4810.00
 2080.0000 0.2114600   4807.69
 2081.0000 0.2452800   4805.38
 2082.0000 0.2890800   4803.07
 2083.0000 0.3328800   4800.77
 2084.0000 0.3766800   4798.46
 2085.0000 0.4204800   4796.16
 2086.0000 0.4682600   4793.86
 2087.0000 0.5211400   4791.57
 2088.0000 0.5740200   4789.27
 2089.0000 0.6269000   4786.98
 2090.0000 0.6797900   4784.69
 2091.0000 0.7279700   4782.40
 2092.0000 0.7702100   4780.11
 2093.0000 0.8124500   4777.83
 2094.0000 0.8546900   4775.55
 2095.0000 0.8969200   4773.27
 2096.0000 0.9261300   4770.99
 2097.0000 0.9391500   4768.72
 2098.0000 0.9521800   4766.44
 2099.0000 0.9652000   4764.17
 2100.0000 0.9782200   4761.90
 2101.0000 0.9867200   4759.64
 2102.0000 0.9896400   4757.37
 2103.0000 0.9925500   4755.11
 2104.0000 0.9954600   4752.85
 2105.0000 0.9983700   4750.59
 2106.0000 0.9927000   4748.34
 2107.0000 0.9761600   4746.08
 2108.0000 0.9596200   4743.83
 2109.0000 0.9430800   4741.58
 2110.0000 0.9265400   4739.34
 2111.0000 0.9132500   4737.09
 2112.0000 0.9039700   4734.85
 2113.0000 0.8946800   4732.61
 2114.0000 0.8854000   4730.37
 2115.0000 0.8761100   4728.13
 2116.0000 0.8641500   4725.90
 2117.0000 0.8488600   4723.67
 2118.0000 0.8335700   4721.44
 2119.0000 0.8182800   4719.21
 2120.0000 0.8030000   4716.98
 2121.0000 0.7870600   4714.76
 2122.0000 0.7702300   4712.54
 2123.0000 0.7534100   4710.32
 2124.0000 0.7365900   4708.10
 2125.0000 0.7197700   4705.88
 2126.0000 0.7043300   4703.67
 2127.0000 0.6905500   4701.46
 2128.0000 0.6767700   4699.25
 2129.0000 0.6629900   4697.04
 2130.0000 0.6492100   4694.84
 2131.0000 0.6345000   4692.63
 2132.0000 0.6185800   4690.43
 2133.0000 0.6026600   4688.23
 2134.0000 0.5867400   4686.04
 2135.0000 0.5708100   4683.84
 2136.0000 0.5551800   4681.65
 2137.0000 0.5398900   4679.46
 2138.0000 0.5246100   4677.27
 2139.0000 0.5093300   4675.08
 2140.0000 0.4940500   4672.90
 2141.0000 0.4767200   4670.71
 2142.0000 0.4568400   4668.53
 2143.0000 0.4369500   4666.36
 2144.0000 0.4170700   4664.18
 2145.0000 0.3971800   4662.00
 2146.0000 0.3756300   4659.83
 2147.0000 0.3520500   4657.66
 2148.0000 0.3284700   4655.49
 2149.0000 0.3048900   4653.33
 2150.0000 0.2813100   4651.16
 2151.0000 0.2578500   4649.00
 2152.0000 0.2345500   4646.84
 2153.0000 0.2112500   4644.68
 2154.0000 0.1879500   4642.53
 2155.0000 0.1646500   4640.37
 2156.0000 0.1451200   4638.22
 2157.0000 0.1302600   4636.07
 2158.0000 0.1153900   4633.92
 2159.0000 0.1005300   4631.77
 2160.0000 0.0856600   4629.63
 2161.0000 0.0740200   4627.49
 2162.0000 0.0665900   4625.35
 2163.0000 0.0591600   4623.21
 2164.0000 0.0517300   4621.07
 2165.0000 0.0443000   4618.94
 2166.0000 0.0382600   4616.81
 2167.0000 0.0339500   4614.67
 2168.0000 0.0296300   4612.55
 2169.0000 0.0253200   4610.42
 2170.0000 0.0210000   4608.29
 2171.0000 0.0177100   4606.17
 2172.0000 0.0156500   4604.05
 2173.0000 0.0135900   4601.93
 2174.0000 0.0115300   4599.82
 2175.0000 0.0103600   4597.70
 2176.0000 0.0000000   4595.59
